Sample File	P:\aerosols\private\Bret Hatzinger\Summer Work 2021\Sample Data Generation for Guillermo (6_2_21)\HTDMA 0.1gL AmmSulf 200nmPSL Sample Peaks\HTDMA 0.S80
Classifier Model	3080
DMA Model	3081
DMA Inner Radius(cm)	0.00937
DMA Outer Radius(cm)	0.01961
DMA Characteristic Length(cm)	0.44369
CPC Model	3776 Low Flow
Reference Gas Viscosity (Pa*s)	1.83245e-005
Reference Mean Free Path (m)	6.73e-008
Reference Gas Temperature (K)	296.15
Reference Gas Pressure (kPa)	101.3
Channels/Decade	64
Multiple Charge Correction	FALSE
Nanoparticle Aggregate Mobility Analysis	FALSE
Diffusion Correction	FALSE
Gas Density	0.0012
Units	dw/dlogDp
Weight	Number
Sample #	1	2	3	4	5	6	7	8	9	10	11	12	13	14	15	16	17	18	19	20	21	22	23	24	25	26	27	28	29	30	31	32	33	34	35	36	37	38	39	40	41	42	43	44	45	46	47	48	49	50	51	52	53	54	55	56	57	58	59	60	61	62	63	64	65	66	67	68	69	70	71
Date	07/15/21	07/15/21	07/15/21	07/15/21	07/15/21	07/15/21	07/15/21	07/15/21	07/15/21	07/15/21	07/15/21	07/15/21	07/15/21	07/15/21	07/15/21	07/15/21	07/15/21	07/15/21	07/15/21	07/15/21	07/15/21	07/15/21	07/15/21	07/15/21	07/15/21	07/15/21	07/15/21	07/15/21	07/15/21	07/15/21	07/15/21	07/15/21	07/15/21	07/15/21	07/15/21	07/15/21	07/15/21	07/15/21	07/15/21	07/15/21	07/15/21	07/15/21	07/15/21	07/15/21	07/15/21	07/15/21	07/15/21	07/15/21	07/15/21	07/15/21	07/15/21	07/15/21	07/15/21	07/15/21	07/15/21	07/15/21	07/15/21	07/15/21	07/15/21	07/15/21	07/15/21	07/15/21	07/15/21	07/15/21	07/15/21	07/15/21	07/15/21	07/15/21	07/15/21	07/15/21	07/15/21
Start Time	09:37:06	09:39:24	09:41:39	09:43:54	09:46:09	09:48:24	09:50:39	09:52:54	09:55:09	09:57:24	09:59:39	10:01:54	10:04:09	10:06:24	10:08:39	10:10:54	10:13:09	10:15:24	10:17:39	10:19:54	10:22:09	10:24:24	10:26:39	10:28:54	10:31:09	10:33:24	10:35:39	10:37:54	10:40:09	10:42:24	10:44:39	10:46:54	10:49:09	10:51:24	10:53:39	10:55:54	10:58:09	11:00:24	11:02:39	11:04:54	11:07:09	11:09:24	11:11:39	11:13:54	11:16:09	11:18:24	11:20:39	11:22:54	11:25:09	11:27:24	11:29:39	11:31:54	11:34:09	11:36:25	11:38:40	11:40:55	11:43:10	11:45:25	11:47:40	11:49:55	11:52:10	11:54:25	11:56:40	11:58:55	12:01:10	12:03:25	12:05:40	12:07:55	12:10:10	12:12:25	12:14:40
Diameter Midpoint
 14.6	762.813	19290	13808.7	2271.13	757.042	2271.13	312.045	312.045	2583.17	5302.18	6371.27	7131.19	3785.21	8639.51	5299.29	2274.01	4542.25	4097.25	3031.05	5166.34	3028.17	5611.34	4854.3	2583.17	1514.08	3028.17	3028.17	1069.09	2895.22	3785.21	1514.08	0	3785.21	2138.17	1514.08	4409.3	3028.17	2271.13	2583.17	3785.21	757.042	3031.05	3028.17	1381.13	2271.13	2583.17	0	2138.17	1826.13	4542.25	0	757.042	1069.09	1514.08	757.042	1514.08	312.045	2271.13	757.042	1069.09	0	1514.08	1514.08	1826.13	3028.17	1514.08	757.042	6371.27	757.042	5611.34	3028.17
 15.1	8626.54	33035.6	31282.3	6305.18	4379.16	5707.1	5274.48	2618.6	6734.2	23223.7	7464.06	11579.7	12610.4	20469.8	11282.4	7298.6	11546	9521.86	8231.2	13002.1	10684.3	12573.1	11447.9	4808.18	6903.26	4977.24	7896.68	6997.76	8754.72	4977.24	7166.82	4379.16	5707.1	9089.23	5109.02	7163.22	10289	5838.88	9785.42	13005.7	5109.02	8758.32	5109.02	9484.58	10086.3	9785.42	5838.88	8359.37	8528.43	8626.54	729.86	0	3084.9	2787.66	2189.58	6173.4	6004.34	4379.16	0	4808.18	4115.6	2057.8	5707.1	5538.04	729.86	4977.24	5838.88	4078.32	3517.52	3216.68	3649.3
 15.7	7162.04	55579.9	46730.8	5484.72	3670.59	4348.03	10103.1	5781.09	13070.2	31143	7289.06	17301	25896.1	16317.3	12340.6	16486.7	17867.6	18978.3	16841.7	17994.7	16740.7	19401.7	19935.8	7035.01	9832.75	7865.54	6611.62	12969.2	8171.7	11383	9578.71	8595.1	6061.2	9103.19	10705.6	5882.05	8741.71	9145.52	6061.2	11138.8	14070	12112.6	12816.1	14503.2	6611.62	12790	10002.1	16291.3	13053.9	11689.2	0	1407	7289.06	1534.02	1407	5305.58	2517.63	2814.01	2263.59	2110.5	2670.72	5755.03	5051.53	4924.51	9145.52	5755.03	6637.68	10002.1	12086.5	11383	7188.1
 16.3	8813.92	44266.7	37922.6	5806.88	4331.51	6101.95	5157.03	7454.56	7988.4	27492.6	10169.9	15681.7	21657.5	16795.6	11525.9	19922	13289.6	15854	18980.5	20069.5	21400.7	21569.7	19777.8	5301.19	11908.8	8135.93	6632.41	15298.8	13264.8	9636.07	7840.86	7988.4	9607.93	7454.56	8810.54	10458.2	10904.2	8813.92	11519.1	8782.4	12881.9	7988.4	13145.4	12319.9	5954.41	5835.03	11522.5	15443	9460.39	13409	2033.98	3389.97	5423.95	4067.96	3123.05	4479.04	3653.51	4067.96	8132.55	4067.96	2416.91	6657.18	5423.95	5423.95	6101.95	7457.93	7162.87	9755.46	8135.93	10847.9	7988.4
 16.8	7830.6	41736.1	53218.7	5870.53	4821.04	9800.34	7444.14	5731.61	6523.89	27638.9	10453.7	22214.1	25421.6	20600.5	16919.5	15126.1	15789.2	21025.7	18126	16423.2	23501.5	23442.2	22461.7	3365.73	7830.6	13028.4	13028.4	10444	9127.63	9642.07	6523.89	12394.4	10691.6	12918.5	17453.3	9503.16	12651.6	15670.9	10175.9	17888.2	16314.6	11750.7	10701.2	14611.7	10434.3	12661.3	11602.1	15541.6	17215.5	16175.6	1306.71	3910.46	5207.5	3920.14	2860.97	2207.61	3524	5226.85	3781.22	3920.14	5226.85	6651.86	3910.46	6504.53	7820.92	5217.17	7830.6	6137.42	5226.85	3920.14	9137.31
 17.5	13917.9	49715.7	44264.7	4645.53	5052.89	8418.86	8418.86	8428.2	11580.4	45283.9	10717.5	22550.5	25740.1	19387.5	18387.1	24014.4	19368.8	18098.6	20018	25061.5	21715.7	24459.1	26342.5	7584	7613.49	15798.4	13315.5	11396.1	12035.9	6546.2	13287.5	13704.2	15149.3	11173.1	13732.2	15779.8	10105.8	12026.6	9272.39	15770.4	12035.9	13694.8	13694.8	15818.6	14111.5	22113.7	14334.6	16653.5	17088.8	15595.5	630.444	5275.98	3209.71	5897.08	3384.64	4238.18	5043.55	4005.75	5043.55	6304.44	6304.44	6120.17	6313.78	7185.98	9475.33	8428.2	8428.2	10940.6	12424.6	9456.66	11580.4
 18.1	8911.66	49051.3	52661	7775.09	8340.83	2826.2	6300.7	8733.87	11167	38370	9124.36	34277.1	26554.6	18076	15427.6	20902.2	19467.9	24334.2	20333.9	21292.7	32151.8	23633.2	36545.1	11031.8	10736.5	7732.54	13602.7	12210.9	11520.1	12816.7	8561.17	18076	13031.9	12343.6	19199.9	14599	15207.3	12994.5	26674.7	14248.5	15778.1	17117.2	10518.7	12736.6	17249.9	19427.8	15467.6	15995.9	17252.5	21375.3	866.095	2475.72	6478.5	4042.79	4042.79	5477.17	5299.37	3434.49	9990.45	4866.33	4258.03	2610.96	8340.83	6909	10165.7	12383.6	8383.38	6475.95	10343.5	13815.4	15425.1
 18.8	16623.2	66061.1	49334	10497.8	4870.41	4735.74	5492.67	14445.8	11369.1	40291.4	8883.84	32354.1	34525.5	28061.5	22081.2	25157.9	20875.2	20840.5	24082.7	20287.5	31780.8	27394.1	23733.6	8838.71	13754.2	16035.6	12195.2	14680.5	14207.2	15064.2	17031	10328.5	17000.2	12444.3	15153.7	16627	13550.3	18659.3	16816.6	14545.8	15382.5	17788	13585	21777.3	15482.5	20152.9	16443.4	20322.2	21044.5	24874.3	926.227	3899.05	3107.49	1175.28	5876.39	4317.39	4870.41	6498.66	7424.88	4770.36	10024.5	7639.31	10781.4	9018.51	11956.7	9053.13	9357.1	7051.67	10193.8	16070.2	12026
 19.5	11353.1	66379.2	57501.2	5676.53	6124.36	10975.9	9049	28887.1	14829.6	45953.9	9119.64	27818.7	32240.1	29745.6	26903.6	23244.1	27785.3	26907.3	24790	29592.3	31452.3	29401.9	25738.6	9997.59	10598.7	11009.3	14762.7	13556.8	14314.9	16756.5	14228.5	17357.6	18412	17601	20610.2	20372.4	19834.4	15226.3	13851.3	20215.3	14091	12989.1	23430.8	13246.5	19146.9	19924.5	17754.3	23434.5	24155.5	26803.3	567.653	5299.34	6124.36	5676.53	7947.14	9049	8618.88	3596.39	8361.52	11510.1	7450.13	6244.18	10632.1	9496.83	9720.74	8104.16	13350.6	9082.44	14262	10975.9	8982.1
 20.2	11051.3	69868.6	61936.8	13005.5	9437.45	5660.8	9715.44	30311.6	14240.7	57079.4	12680.3	26852.4	44599.5	22249.5	20859.6	28188.3	24898.2	25384.9	33185	36228.2	39850.2	29555.3	30713.6	9282.85	16650.4	11537.9	12356.6	16225.4	17021.3	12534	14395.3	16063.2	19237.4	27400.8	17191	22704.9	10418.4	18418.8	25539.5	15483.7	21075.9	19037.1	21801.7	17260.4	23075.8	25794.6	23995	20998.2	21894.6	22504.6	2193.34	6912.06	4347.83	4780.43	5722.5	4935.02	5621.95	4409.54	7089.51	7305.81	9066.56	12147.9	6695.77	7244.1	10163.2	5815.39	12379.4	14341.3	13607.8	15530.8	14341.3
 20.9	16369.6	68903.2	60063.4	9683.7	7945.31	9154.02	8110.15	39636.6	12116.6	58222.1	13109.8	37572.6	43986.8	20607.1	25271.5	24146	29879.5	26598.5	36961.3	28948.3	31596.7	31365.7	29442.8	9699.21	11088.3	10907.9	9185.03	17182.5	16204.8	19990.1	17341.7	22890.7	19728.1	16431.7	17145.8	15079.2	23321.7	24052.9	22725.9	20736.8	21486.2	18267.2	26978.9	27673.4	21286.2	23635.9	27524.1	25523.7	21975.1	23137.2	1589.06	6885.93	6505.58	7580.46	9833.04	5842.07	8243.98	6654.92	11802.5	8125.66	8125.66	8923	8552.53	7446.63	9185.03	9565.38	17429	12147.6	12759	17114.8	16914.8
 21.7	15505.7	65911.8	71708.3	8019.58	5122.64	9220.75	7492.32	56852.6	11254.8	65180.5	14304.6	36643.7	35978.8	29336.9	26889.5	32165	28510.1	30346.4	34426.8	33234.5	40565.2	37315	34894.1	11934.9	19756.7	16536.4	16018	15335.3	16368.6	19870.7	23977.6	17195.3	20925.2	18174.9	25903.8	17042.5	18753.3	18264.9	23357.5	23120.9	20808.5	27195.2	24879.3	24352	17554.8	25229.9	27090	27782.4	24819.3	23998.8	1536.79	3241.4	4265.92	8004.59	5634.9	9885.83	5290.45	8355.21	6314.98	12255.5	5772.72	5458.26	9313.58	10215.3	12600	13456.7	12591.1	10712.5	13273.9	19777.8	15826.4
 22.5	14331.6	76583.8	70734.2	9594.03	7247.05	7439.22	3642.65	68366	11710.6	55492.5	16102.1	41909.8	47159.1	20475.2	31709.5	27629	30039.5	30344.6	38953.9	39147.4	49024	35581.3	35593.9	14827.6	12377.5	20595.3	18603	17486.9	20869.4	18367.2	18966.2	21224	25645.2	28390.5	22600.3	26730.3	17649.3	20039.9	24311.3	26162.3	23113.3	23802.7	24503.5	26791	21690.3	24259.1	23229	27881.9	23927	23549.8	991.896	5292.96	7084.58	4442.37	5951.38	9372.14	6284.86	10868.5	9068.37	14502.6	8876.19	9513.44	13036	12206.5	12681.3	13947.3	10817.7	10030.6	13998.1	15281.2	15029.6
 23.3	14664.6	69350.2	69734.1	9435.06	7388.22	9010.86	9491	64032.2	15070.5	55059.1	17013.2	39512.2	47298.7	33572.4	22603	28997.3	29805.4	33084.3	41883.2	37387.4	37055.6	39192.2	29827.5	12319.8	16879.2	19540.2	17027.6	13648.3	16183	17765.3	19298.2	18821.9	24051.4	26288.1	22715.1	17913.7	18762.1	28074.7	33062.2	24657.8	26924.5	23589.4	22257.1	24955.7	27426.8	23139.3	20612.3	24609.5	32105.8	26816.5	2400.72	5281.59	5835.9	7812.42	6722.02	7038.19	5225.65	5966.01	9196.91	7886.59	5653.7	8128.59	9621.11	9677.06	9919.05	10291.2	14556.5	13760.2	16585.1	19358	16443.2
 24.1	18489.4	73764	72815.1	9949.9	9325.04	8043.9	8571.73	87784.4	13029.1	60152.3	15861.2	30615.4	46076.8	31033.8	28729.6	29860.6	33123.4	31949	42954.5	39982.4	40003.7	35438.4	42900.6	13610.9	18693.2	21310.6	18705.2	16432.1	18285.7	18251.9	18586.4	19006.4	26564.4	16561.7	24357.2	23097.8	22214.9	26598.1	29246.6	17725.2	28030.2	21697.9	30291.4	23969.9	28482.4	27911.5	21008.2	25638.3	24045.6	29021.1	1852.05	6546.98	7117.88	6600.92	8528.65	6999.12	6137.91	6708.82	11748	8560.86	8797.22	10025.6	10014.7	17304.1	8851.17	13212.7	16442.9	19167	16378.1	21665.7	25811.1
 25.0	12233.3	75776.6	78381.3	11521	7752.38	7474.24	10730.3	84926.8	12869.9	62649.2	12485.1	43223.6	41974.2	28376.6	20883.1	29897	34202.6	31308.8	27736.2	35981.9	45056.8	42124.5	36622.3	16125.9	12763.2	19425.6	16280.1	17987.4	25577.3	24221.3	21395.6	16043.7	20513.7	19724.9	21477.8	27410.5	19723	26046.2	23367.6	20048.7	18293.8	26982	27564.7	29273.9	23131.3	28763.3	26423.8	31091.7	29426.2	23176.9	899.273	6125.34	8095.38	5504.2	7904.63	8992.73	5675.7	7645.75	7752.38	7752.38	11240.9	8803.9	10387.3	10728.3	9678.74	12744	16468.9	13321.4	19058.2	21010.9	18782
 25.9	13166.7	83850.3	74710.4	9733.63	7090.84	8937.55	12969.3	86655.7	14712.4	70731.8	15164.3	41254.7	41852.6	31109.8	29232.4	33377.7	30116.4	38184.9	33170.5	28452.1	36250.3	36588.6	35568.6	17245.7	14472.7	16195.1	23389.6	20757.6	21272.5	19898.4	21366.2	16283.8	19784.9	26531.5	20939.1	20653.9	26079.6	24435.2	28737.3	18072.5	28457.1	28826.1	29326.1	21542.8	24940.3	27254.6	28384.1	22973.3	27484.4	30907.5	0	5878.48	5711.79	3766.41	4807.12	7257.53	7189.51	7381.89	7184.55	7356.2	11721.3	13547.3	9806.61	13469.4	13068	13042.3	15258	15960.4	16298.7	25236.3	17021
 26.9	12156	75287.4	63118.2	13431.2	13188.4	11230	11822	82967.3	10869.6	64751.7	13882.7	37949.8	41804	26875.6	26757.5	27752.3	29250	34978.5	36331.6	34629.2	30623.4	39921.5	45576.7	12841.2	21398.5	18198.1	12839.2	20243.5	19664.7	23568.3	19226.4	19896.3	20423.7	17194.3	16689.2	21865.9	26352.4	22137.2	29721.8	19315.5	16920.8	24505.4	22769.5	23490.4	23479.2	22010.5	26372.6	29773.2	25680.4	20566.3	2550.44	6554.21	6207.04	2550.44	6376.09	7740.37	9954.79	9527.63	6799.08	9954.79	10043.9	8848.62	10971.9	11049.8	12414.1	15080.1	16767.1	14383.6	18120.2	20735.3	18235.8
 27.9	13707.9	83468.6	74626.3	14516.7	14098.9	13684.9	6317.73	74536	17662.8	62126	17944.3	39252.5	43448.2	29924.9	31203.9	32122.1	30132.6	37062.9	31652.1	30489.2	39429.4	47127.9	39034.6	11980.7	18876.7	17380	12466	21635.5	18027.1	15483.4	11807.5	16638.7	19269	22790.8	21304.4	15987.9	21007.5	22203.6	19573.5	25018.6	24032.7	25496.2	22655.8	21726	27321.4	20187.3	30406.4	27133	23618.7	30515.9	1640.55	5075.82	6238.73	4925.49	4929.32	6645.04	5899.93	6389.06	4184.21	7954.45	8849.89	9105.87	10411.4	9512.17	15743.2	11871.2	12608.6	11385.9	15412.1	16488.4	17270.5
 28.9	11608.5	67239.5	73636.8	12597.5	14750.3	11735.8	9470.62	90401.5	19375.8	57989.9	8279.28	34606.9	40551	31518.7	24896.5	26474.9	30371.1	29253.5	36849.7	32061.9	30975.5	37648.9	31255.2	14490.6	15654.4	14928.9	23060.8	18890	17714.9	17217.9	20073.8	17543.8	24171	20992.9	22482.6	25443.5	21784.6	20659.5	24241	21913.3	23526.6	25117.6	24648	24974	26211.5	19061.1	26401.3	19852.8	26979.4	30975.5	1998.01	7262.78	7328.99	7988.31	7332.72	5986.56	6607.2	6929.39	8857.45	12776.1	7728.59	8531.53	9656.66	12857.2	16124	9400.68	10932.9	13617.7	15794.3	18447.9	12752.3
 30.0	14395.6	65047.9	67884.4	9963.77	12525.9	11335	6669.75	80925.4	14600.2	61282.6	10533.5	40718.8	40494.4	23617	28721.7	24238.2	27409.5	25406.4	27215.5	34433.8	27105	35979.3	40483.9	10837.9	16815.4	15066.9	12992.6	18574.4	17253.3	19286.6	19469.9	17944.2	16804.8	17568.5	18065.3	19438.1	25945.9	17242.7	18401.8	20894.3	22976.1	24907.9	19174.5	22714.1	21277.4	25997.4	27409.5	20851.8	27359.6	25041.3	1422.73	5856.15	8103.15	6963.75	7584.97	6059.2	7259.17	6557.66	5987.96	8631.99	7198.59	11844.1	8947.13	8824.37	8234.96	10095.6	14935.1	18891.2	14477.5	17333.6	15616.9
 31.1	8517.76	63170	57142.2	10576.3	7772.59	12339.8	4885.17	78135.4	11165.6	53506.1	9966.78	28979.9	40538.4	24408.2	27388.1	23482.4	30472	31226	38116	35416.2	28275	39382.7	26693.1	14362.2	12913.2	17911.1	13402.9	13976.4	17875	18236.2	16479.7	19827.9	23521.3	17678.6	19931.8	16358.2	19863.9	23974.9	25254.7	16163.5	20180.2	21688.2	19058	20967.7	18559.4	20498.2	23505.4	21207.3	25467.1	30893.9	2381.8	5707.01	5149.45	6007.35	5081.61	6709.41	6838.02	5314.12	4643.83	7969.03	7917.09	6957.8	9100.05	12958.1	8759.1	8020.98	9219.83	15818.3	11269.5	17292.8	21509.4
 32.2	11859.9	60970.1	56725.6	10155.4	9437.2	7420.53	10909.5	72831.7	12162.1	51393.2	11903.3	31240.7	29982.6	24145.4	19004.8	25942.4	22636.6	27130.4	29651.1	33870.7	31538	30366.2	31327.6	13304.2	14073.9	17340.7	16737.3	13309.8	15150.2	16044.6	14061.4	15837.3	19786.8	14089.4	16957.1	19490.2	17006.1	16721.8	23421.7	21246.7	17616.3	18281	20489.5	21138.8	19298.4	20906.6	22450.3	22314.4	20341.2	28513.4	1104.23	4092.32	5004.75	3696.29	5784.37	7036.94	6449.12	8524.77	8537.2	6372.18	5521.17	8657.59	9465.15	10452.1	7980.4	8772.45	11970.3	9140.52	11952.3	11661.2	14429.5
 33.4	14704.6	53876.3	48013.1	9530.48	6814.37	7062.19	3603	67271.7	9416.12	41129.5	9387.09	23605.2	33031.6	21112.4	19690.1	19868.3	24190.3	23976.9	27971.1	29512.7	23937.1	34538	32813.2	8603.83	7423.97	13703.3	15809.4	13267	10382.6	13128.5	10878.2	16092.1	13271.9	15521.8	21226.4	10348.1	18153.4	20725.7	20730.7	18976	19239.2	18654.5	17088.3	19655.3	15482.4	17474.6	20616.7	18733.6	24864.2	18803.2	0	2641.53	5496.08	4063.84	3637.81	4812.29	3211.37	4316.64	7453.83	4495.25	6561.57	5847.94	6958.17	7240.81	11096.2	7597.63	8702.49	9629.55	12023.3	10878.2	9668.91
 34.6	9042.31	57180.1	50358.8	7351.6	4132.38	8424.63	4989.87	59747.4	12370.5	40972.5	10355.2	27473.2	32356.5	21221.3	19395	25974	21945.7	21492.8	24523.1	25114.1	21330.4	27047	27872.8	9793.26	14918.9	12181.6	12772.7	13550.1	11108.6	14596.5	9766.53	15078.6	15589.7	11566.4	13547.6	17064.9	11265.9	15909.4	12048.3	13092.3	11915.2	13491.9	19637.3	19077.7	19799.6	19315.1	21487.9	16205	21972.3	18510.9	617.681	1744.05	3139.28	7029.39	5365.28	4345.46	5421.07	6574.04	6518.25	5365.28	9122.25	7378.2	5607.55	7135.93	7780.34	9417.72	8344.69	9255.39	8531.17	13334.6	7700.41
 35.9	8640.51	46881.5	39766.4	7689.38	6590.11	7148.91	4622.94	49424.3	11166.5	42925.9	8087.33	21816.5	23052.6	19433	14742.3	21120.8	19818.2	21702.2	20893.6	18421.2	25790.3	26337.8	27981.8	7807.93	9162.64	11172.1	14160.9	12082.3	11213	8814.09	11766.2	12586.1	16727.8	13816.6	12924.8	17547.7	14462.9	14975.2	14630.9	13602.1	13520.3	20018.7	19145.1	17419.3	19442.9	19383.6	17451.8	14760.7	18896.8	16691.2	416.293	4682.21	2709.42	1848.62	3405.12	3880.69	4219.36	5455.52	3464.39	4421.15	9739.78	6869.51	5098.51	7428.32	7611.76	8040.77	9597.27	11231.4	9519.66	14000.1	8485.28
 37.2	5976.44	41470.4	34854	4814.33	4213.51	5040.1	5040.1	53166.4	8248.92	36504.8	6745.02	21975.1	27487.4	14563.1	15288.1	14672.8	19828.9	23089.5	14846.9	17834	23273.9	19538.9	21859	8296.59	10852.8	9417.3	10090.5	12352.7	8590.7	15172	15114	14710.2	13289	11194.6	12390	10562.7	14519.5	15192.7	12605.4	13572.8	16220.3	11526.1	13394.7	17177.3	11190.6	16172.7	16187.1	15157.6	16829.3	15540.8	1609.58	3656.29	2651.6	2603.93	2709.61	4640.3	2935.38	4992.43	5586.98	3041.06	6718.02	7302.24	4555.29	6376.24	6423.91	6923.12	6697.35	7985.81	8354.6	9964.18	8012.81
 38.5	8015.5	36151.6	37308.9	4834.28	3960.13	4558.35	3225.21	51171.7	7695.57	32891.8	5068.57	21046	22713.2	12573.8	13647.7	14187.6	16958.6	17871.8	16956.2	18792.3	22298.2	17090.6	21002	8293.79	9119.06	8061.85	9119.06	8430.49	11521.4	10000.3	6865.42	9538.93	13411.1	10732.8	9494.94	14050.8	9167.77	12070.7	14050.9	8520.84	13130.4	14600.3	12808.1	8476.85	11885.3	16633.9	14517	18284.6	16035.7	13086.4	1013.21	1335.5	4511.99	2302.35	1889.72	2856.57	2902.93	2993.28	5759.5	4834.28	3039.63	5759.5	4006.49	6084.15	5070.94	6406.43	3869.78	5896.2	8293.79	8428.13	7969.14
 40.0	4506.42	37482.3	27915.6	4687.35	5172.99	5367.41	4948.97	41073.6	5448.1	33963.1	4142.09	17256.9	21169.5	15144	9762.58	11616.9	11886.5	11034	14903.5	17081.5	14636.4	20888.9	15041.3	6711.03	10146.5	8562.31	8883.55	8367.89	9274.46	8186.96	7663.72	7118.46	9099.04	6667.93	9638.8	9406.78	11986.7	11932.6	13700.2	8154.87	10858.6	11306.7	10810	10262.3	9455.39	10264.7	12790.6	11495.6	10799	12868.8	1894.38	4055.89	3108.7	2112.9	2253.21	3734.65	1937.48	3108.7	4190.69	5585.93	4055.89	5089.28	3060.09	6395.3	3237.99	6978.15	4414.72	5726.24	7925.34	6357.7	9728.02
 41.4	4857.8	30775.8	30299.9	2813.92	3263.28	4303.59	5740.2	34070	4970.17	31971.3	7918.53	15684.9	15424.8	9502.85	8948.64	12303.5	9935.88	13732.6	11381.3	13317.3	13178.4	14016.5	18745.6	4658.31	7070.18	6381.53	5719.41	8662.03	6060.86	7939.32	5533.19	7377.58	7009.59	10070.3	8840.72	9476.31	8827.46	8125.54	9455.52	9381.67	8104.75	10472.4	10178.2	8722.62	9247.22	11840.9	8706.28	11438.8	11628.1	13320.3	922.198	1523.73	2813.92	1263.65	1476.41	1878.45	2091.21	3736.11	2459.19	3722.85	3675.53	4476.55	4090.84	3736.11	3675.53	5199.26	5887.91	6581.02	4398.24	4489.81	5861.38
 42.9	4801.78	21835.7	23542.2	3456.19	1949.06	10469.5	7150.04	36402	9480.36	23283.5	6890.71	12355.4	17178.2	12095.4	12558.4	10788.2	10967.1	14142.9	11773	11288.9	13882.9	14464.7	15590	5646.65	8801.41	6368.32	6066.9	8678.22	7994.9	7090	6852.35	8499.99	6831.3	9302.13	7493.57	6708.11	6809.63	11348.3	6890.71	5884.29	8295.71	7192.14	6992.23	7794.99	9900.61	9722.38	8576.08	7773.32	10325.2	7090.62	1125.24	1867.97	1808.56	1184.65	2390.36	3073.68	3375.11	2109.99	2330.95	3073.68	4942.28	2288.22	2933.8	2712.84	3596.07	4941.65	4661.9	3935.86	4882.86	5765.47	3434.52
 44.5	3604.29	21513.5	19592.5	2507.44	2801.26	14742	18420.8	28616.2	18505.6	21060.4	8677.68	15614.7	15936	12951.6	9452.04	7954.28	9845.42	7867.1	11882.2	11401.7	9638.77	14684.7	13694.9	7316.86	6699.36	6328.31	6141.58	3761.15	5201.6	5260.12	3310.46	2879.69	6513.84	5632.37	5525.28	8757.31	5662.23	6033.29	6807.66	7023.04	8277.96	9825.5	3311.67	5338.55	5204	6807.66	8249.3	6249.87	10199	10276.2	666.076	881.463	2056.75	2135.18	1547.54	2644.39	1254.92	2350.57	2909.55	1175.28	2292.05	2056.75	2802.46	2243.47	4378.66	2136.38	4056.18	5926.19	3360.24	7396.5	7905.71
 46.1	5772.46	13528.5	16359.4	1300.27	2023.83	14738.5	21173.8	26699.7	27133.7	27547.2	8797.54	9658.48	10779.6	6544.58	8761.13	8289.52	6517.63	8824.48	7959.42	6129.51	4970.75	9339.04	8505.05	2700.31	3318.77	5259.11	4870.98	4036.99	7030.99	4288.94	2742.05	4330.68	3717.56	5007.16	5977.33	3093.77	5400.62	3607.12	6024.41	5589.21	7534.88	6517.63	7277.6	5877.56	7309.88	7314.01	7057.94	5259.11	9176.2	6659.15	865.069	1164.09	2306.85	1441.78	2742.05	1153.43	1075.27	1730.14	2411.95	1011.91	1441.78	1730.14	786.915	2123.6	3570.71	3964.17	3093.77	2700.31	3712.22	3922.43	3775.58
 47.8	1401.72	14847.5	15239.8	1826.4	1964.49	13898.8	16139.4	20476.3	23052.7	21381.2	8116.23	7686.35	7426.92	7371.46	6483.39	5721.86	7189.45	4276.23	4458.24	7366.25	7834.85	8944.78	5998.04	5727.07	2405.92	4739.62	4453.03	2731.22	5539.86	1925.78	2968.69	4314.94	3046.11	4882.91	4320.14	3939.38	3658	3250.07	4072.27	3752.17	5435.28	2488.54	4839	5059.72	5297.19	4982.29	6284.63	6262.67	5644.44	4982.29	281.384	1959.28	1125.54	1787.68	1644.39	1969.69	2251.08	844.153	1506.3	2306.54	1969.69	1406.92	1688.31	3376.61	2245.87	1881.86	2168.45	1406.92	3150.69	2951.93	2813.84
 49.6	1658.19	13514	11458.1	1658.19	1427.76	7531.54	14440.7	20629	18108.8	16103.8	5245.2	9390.68	9328.3	7266.65	4174.96	4692.47	5787.22	7174.02	4646.54	6022.63	3310.65	8469.72	6857.46	1606.52	3898.6	2435.62	2389.68	5378.03	2706.24	3495.14	4129.03	5153.34	2711.98	2435.62	3771.51	2809.59	4974.58	4174.96	5066.44	5337.07	2757.92	5706.07	3028.54	5895.54	3495.14	5101.66	3264.71	4808.85	6385.89	5976.69	276.365	552.731	1427.76	1053.79	731.491	0	552.731	552.731	731.491	1232.55	2210.92	1105.46	2210.92	322.299	1381.83	3996.2	2568.44	2533.22	3673.9	1381.83	1704.13
 51.4	1357.6	8465.14	9943.79	2172.16	755.098	6879.02	6593.17	10532.7	10818.6	13086	2867.8	7755.17	4284.86	3801.29	3741.82	5325.82	2943.72	4949.71	5056.42	5823.73	5825.85	7002.19	5928.32	3198.78	2941.6	1583.99	1343.27	2670.08	4737.65	1900.64	2143.49	1900.64	4013.34	2670.08	3786.95	3170.11	4058.47	2927.26	5068.63	4149.48	2867.8	2672.2	5235.56	3682.36	2443.68	3455.97	2127.04	3984.67	4542.05	3696.7	271.521	543.041	1298.14	483.578	257.185	814.562	1086.08	1086.08	1357.6	1298.14	1343.27	543.041	800.226	769.433	2429.35	1312.47	1614.79	1841.18	1057.41	2172.16	1855.52
 53.3	985.98	8603.86	7898.81	1252.82	280.929	2320.18	3216.18	11123.6	3696.65	7969.25	2162.9	3949.41	3216.18	2772.48	2867.95	4283.54	3800.73	5039.46	6994.22	5721.82	1924.24	5578.63	6879.17	3749.86	2772.48	1786.5	2067.43	2134.73	2415.66	2587.03	2615.2	3202.09	2415.66	2587.03	1081.45	3348.43	1881.97	3668.48	2320.18	2867.95	2615.2	1910.15	1266.91	4297.63	2401.57	2882.04	2853.87	3429.81	4030.79	2148.82	800.523	266.841	1081.45	1081.45	280.929	0	719.139	800.523	800.523	1081.45	280.929	800.523	1266.91	1334.2	1904.66	1786.5	1348.29	2148.82	1362.38	2401.57	2505.64
 55.2	604.641	4174.79	4619.42	2392.83	786.954	2178.55	2360.86	8746.16	2965.5	8350.97	1573.91	3490.14	5615.82	2890.33	2440.87	5615.82	4126.74	5148.88	6772.23	7515.97	3147.82	3442.1	5148.88	1836.23	1733.92	1129.28	2178.55	2468	1311.59	1391.6	604.641	2623.18	1573.91	1761.05	2098.55	1578.74	786.954	2440.87	2810.32	4277.09	2440.87	2360.86	1916.23	1943.37	1418.73	2548.01	3752.46	1391.6	2205.68	1418.73	0	524.636	524.636	0	0	631.775	866.959	107.139	786.954	786.954	786.954	262.318	866.959	524.636	1289.29	1653.91	1001.23	1311.59	786.954	1573.91	1471.6
 57.3	773.833	4407.3	6448.61	1079.02	515.889	1569.91	818.324	7291.93	1289.72	5896.85	1289.72	4945.43	3808.3	2496.34	2130.29	5098.03	5508.56	5098.03	6326.89	8759.24	3375.52	4970.43	3786.06	257.944	515.889	773.833	1311.97	2238.39	796.079	1031.78	1054.02	2085.8	1289.72	668.481	1569.91	1184.37	1289.72	1289.72	2989.98	1592.16	1054.02	1827.86	515.889	1744.75	2238.39	2496.34	1289.72	1289.72	2238.39	1980.45	0	538.134	257.944	773.833	0	668.481	257.944	410.537	257.944	515.889	1054.02	515.889	257.944	0	257.944	44.4908	1079.02	1031.78	796.079	1569.91	773.833
 59.4	253.712	4983.15	3159.83	507.425	253.712	485.544	971.089	3899.09	761.137	4983.15	8280.15	8051.89	6737.26	7727.7	9229.36	4200.14	4892.06	4269.35	4594.58	6135.17	1246.68	3207.17	3137.95	1775.99	1268.56	1522.27	2123.1	739.257	739.257	945.635	1500.39	670.042	0	1014.85	485.544	1383.84	2467.91	1268.56	761.137	1732.23	992.969	1177.47	945.635	3623.5	992.969	1246.68	761.137	253.712	1246.68	1431.18	0	231.832	0	253.712	253.712	253.712	0	507.425	761.137	0	416.33	253.712	507.425	507.425	761.137	463.664	1014.85	761.137	1500.39	485.544	1014.85
 61.5	1248.08	2646.62	2465.11	499.231	249.615	748.846	249.615	4130.04	249.615	3894.7	23462.4	15905.8	15704	19740.9	17721.2	3560.22	1466.64	3991.35	2465.11	4362.88	1580.07	1980.15	3378.7	1080.83	748.846	1248.08	1965.87	1248.08	1497.69	1066.56	82.3732	816.943	82.3732	998.461	499.231	635.425	400.086	2246.54	663.977	748.846	1580.07	1066.56	564.832	1883.5	998.461	1080.83	748.846	1495.2	1080.83	1148.93	249.615	0	249.615	249.615	249.615	249.615	249.615	499.231	249.615	0	317.712	0	249.615	998.461	499.231	998.461	998.461	164.746	998.461	998.461	82.3732
 63.8	0	1638.46	1366.62	0	491.293	465.098	1693.33	3632.31	1447.68	2840.5	34992.5	23306.2	20460.8	30806.6	30561	2924.02	1884.11	2678.37	2621.05	3224.53	4340.58	3005.08	3415.31	1884.11	1886.59	956.391	655.876	491.293	491.293	684.548	1392.82	1228.23	901.523	982.587	491.293	491.293	629.681	1719.53	1285.56	491.293	901.523	245.647	1941.43	491.293	710.744	1147.17	0	2432.73	1120.97	901.523	0	0	245.647	491.293	0	245.647	491.293	0	245.647	245.647	0	0	0	245.647	245.647	0	710.744	329.166	491.293	710.744	410.23
 66.1	241.8	2034.98	2201.99	0	241.8	992.988	1093.56	1985.98	2201.99	1677.74	34134.3	26291.4	23590.5	30354.4	26183.9	2685.59	1934.4	1093.56	725.401	1260.57	5137.73	2644.94	3511.57	3787.5	4731.49	1234.79	967.202	342.374	241.8	1018.77	967.202	483.601	967.202	241.8	1209	1209	751.187	967.202	751.187	241.8	241.8	483.601	25.7856	483.601	368.16	725.401	241.8	751.187	509.387	967.202	241.8	0	241.8	241.8	241.8	483.601	0	725.401	0	483.601	0	241.8	483.601	725.401	0	483.601	126.359	483.601	0	25.7856	483.601
 68.5	239.292	1765.21	1410.95	0	0	1171.66	2054.1	2392.92	2392.92	1475.98	21617.1	19440.8	17250.5	21728.4	20137.5	3828.67	717.876	857.638	478.584	1171.66	5155.53	4083.4	5857.97	2927.17	5205.13	1196.46	957.168	354.256	1675.04	1889.54	239.292	239.292	453.786	239.292	0	957.168	478.584	717.876	0	453.786	239.292	693.078	0	239.292	857.638	239.292	478.584	1196.46	239.292	957.168	0	0	239.292	453.786	0	0	0	0	0	239.292	239.292	239.292	0	239.292	239.292	0	379.054	239.292	932.37	478.584	693.078
 71.0	235.637	755.751	24.4195	235.637	0	731.332	1178.19	1256.72	471.275	1727.99	10622.8	7191.18	8659.16	14756	10333	1492.36	1021.08	1178.19	706.912	731.332	3583.4	3087.71	2066.58	4344.43	2906.18	4634.18	3691.63	2380.79	2592.01	3244.77	1178.19	471.275	260.057	628.34	0	471.275	471.275	706.912	0	338.589	0	495.694	0	471.275	235.637	942.55	471.275	706.912	471.275	471.275	0	0	0	260.057	471.275	0	0	0	78.5325	0	235.637	235.637	0	0	0	0	0	0	24.4195	235.637	260.057
 73.7	0	0	635.671	233.251	0	1102.17	933.006	855.269	933.006	2021.53	6544.77	3942.23	6389.22	4834.2	5689.51	2254.78	2190.69	2332.51	1335.42	1801.93	1271.34	2799.02	2917.79	1724.19	2254.78	4253.22	3850.8	2734.93	4536.86	4317.3	1866.01	1038.09	0	2048.87	699.754	933.006	0	699.754	233.251	388.766	169.168	0	233.251	699.754	402.419	699.754	699.754	466.503	466.503	0	0	0	0	466.503	233.251	0	233.251	0	388.766	0	466.503	0	233.251	0	0	0	169.168	233.251	466.503	402.419	0
 76.4	230.912	1616.38	1019.83	0	461.824	327.092	230.912	1401.84	230.912	494.563	3543.49	3486.53	1679.82	2372.56	2619.84	8245.61	6545.34	8180.13	6874.47	7072.64	1281.44	1385.47	2037.62	1927.11	1616.38	1902.89	4824.93	4450.77	5239.68	4115.82	2556.4	2205.09	478.193	1281.44	1385.47	461.824	0	0	461.824	461.824	525.265	230.912	461.824	0	987.088	692.736	461.824	461.824	692.736	230.912	0	16.3697	230.912	230.912	0	230.912	461.824	461.824	0	461.824	230.912	0	0	0	461.824	709.105	294.353	0	461.824	294.353	0
 79.1	228.617	457.234	1110.67	0	0	882.055	228.617	1126.88	457.234	1507.89	1126.88	2599.09	914.469	1143.09	1812.73	17995.8	18430.3	20888.4	22965.4	14827.6	854.452	1371.7	914.469	669.644	1371.7	1965.12	2041.35	3429.26	2879.59	1600.32	3353.03	3513.56	3641.67	1997.54	2972.02	914.469	1143.09	1456	914.469	1371.7	854.452	0	84.3001	1143.09	541.534	457.234	914.469	685.851	685.851	252.9	0	441.027	0	685.851	0	457.234	457.234	457.234	457.234	228.617	457.234	228.617	228.617	0	0	525.327	0	228.617	457.234	228.617	0
 82.0	0	1045.21	679.098	0	0	226.366	1131.83	1497.94	452.732	964.89	2177.04	595.628	905.464	1131.83	679.098	26235.1	27726.7	29060.9	27474.4	24771.3	2549.45	1358.2	679.098	1131.83	1584.56	1191.26	905.464	1497.94	1191.26	1271.58	2775.82	2599.43	2177.04	3228.55	1950.68	592.479	2629.77	2999.04	2995.89	1131.83	285.792	679.098	369.262	452.732	369.262	679.098	226.366	366.113	452.732	428.688	0	0	226.366	366.113	1131.83	226.366	226.366	0	0	226.366	452.732	226.366	0	139.747	226.366	142.896	0	226.366	139.747	0	452.732
 85.1	224.157	758.246	855.22	448.315	0	224.157	224.157	1206.56	224.157	1486.28	758.246	1262.12	896.629	448.315	672.472	20891.6	21738.6	24287.1	25657.4	28133.9	1527.69	1793.26	672.472	448.315	672.472	1120.79	224.157	534.088	631.062	1430.72	1793.26	2274.74	2061.78	1793.26	2103.19	1654.88	2917	2020.37	1699.24	1344.94	896.629	0	406.905	672.472	0	224.157	224.157	534.088	224.157	406.905	0	224.157	448.315	309.931	406.905	182.748	224.157	406.905	896.629	0	224.157	0	448.315	534.088	0	448.315	406.905	182.748	534.088	0	0
 88.2	0	1998.77	933.413	223.052	0	223.052	669.156	1320.92	1106.56	965.923	1543.97	1420.72	1561.36	1338.31	1784.42	16560.3	21480.3	21227	17188.6	17552.3	2031.28	1784.42	1115.26	669.156	883.512	1535.28	0	892.208	1362.13	0	892.208	2221.82	2709.13	1115.26	223.052	2213.13	2081.18	2759.03	1156.47	1320.92	2007.47	446.104	2048.67	1775.72	1115.26	446.104	223.052	446.104	223.052	487.309	446.104	223.052	0	643.069	701.666	264.258	0	41.2055	223.052	223.052	223.052	660.46	437.408	437.408	1097.87	0	710.361	487.309	0	0	0
 91.4	1104.52	3763.98	1546.33	441.809	883.617	662.713	220.904	3342.52	1334.04	3763.98	3145.09	3325.3	1988.14	2232.52	3976.28	7132.34	8759.31	11859	12846.9	12870.4	2691.55	3127.87	3348.77	2650.85	2229.39	1130.36	662.713	453.545	1354.39	883.617	1116.26	1113.13	671.325	1558.07	1767.23	1342.65	915.702	1767.23	1337.16	2668.08	3092.66	2871.76	1767.23	1787.58	2441.68	1337.16	1325.43	883.617	1767.23	883.617	662.713	220.904	220.904	467.645	450.421	662.713	441.809	441.809	662.713	220.904	662.713	671.325	892.229	1775.85	900.841	220.904	11.7364	0	674.449	883.617	674.449
 94.7	459.471	2037.9	3297.42	439.656	879.312	679.299	219.828	3164.99	1318.97	3737.08	3781.3	2446.06	4196.55	3953.36	3556.88	5783.11	4832.67	7192.38	6594.84	5052.5	6290.34	7958.03	8138.23	9391.29	9100.34	679.299	899.127	427.977	687.434	679.299	927.077	0	1758.62	1087.46	659.484	1538.8	1735.27	879.312	1087.46	879.312	1558.61	1318.97	3137.04	1527.12	2665.89	1087.46	2657.75	1758.62	2418.11	2418.11	699.114	899.127	1778.44	1318.97	1978.45	0	439.656	219.828	219.828	439.656	659.484	1338.78	1118.95	439.656	679.299	659.484	1546.93	879.312	1087.46	879.312	447.792
 98.2	636.564	2393.53	2874.77	218.761	0	855.325	656.283	3839.1	437.522	3953.14	4093.02	3038.66	3933.42	1761.25	4132.46	3452.18	2824.17	4167.62	4593.98	3058.37	14450.3	13342.7	13397.6	18779.2	16213.2	2402.09	2183.33	875.044	1975.73	1542.49	1472.17	1312.57	656.283	1312.57	875.044	437.522	1109.24	671.722	875.044	656.283	1527.05	1312.57	1268.85	1546.77	1507.33	1546.77	3042.93	2203.05	1312.57	2203.05	3023.22	870.765	870.765	875.044	1093.8	875.044	1109.24	656.283	0	0	671.722	636.564	870.765	0	652.004	437.522	855.325	218.761	1093.8	656.283	855.325
101.8	869.286	2566.34	2796.36	217.703	216.177	653.109	1088.51	1954.75	435.406	2377.84	2158.61	1507.03	2814.77	2364	1508.56	2797.88	1304.69	2362.48	1957.8	1726.26	17021.9	11673	15570.2	16200.2	19464.2	5204.93	6728.85	5655.7	6046.54	5624.97	870.812	0	435.406	653.109	1088.51	435.406	855.447	1289.33	216.177	435.406	420.041	1304.69	1290.85	637.744	637.744	1290.85	1086.99	1508.56	1959.33	1290.85	1301.64	1290.85	1290.85	435.406	1088.51	870.812	420.041	1086.99	870.812	653.109	1073.15	435.406	420.041	1303.17	855.447	217.703	217.703	435.406	0	0	217.703
105.5	651.481	2166.54	1519.62	216.654	218.173	0	0	3037.71	433.308	1301.44	1705.06	1084.79	1702.02	1918.67	1887.46	1301.44	2136.85	1734.75	651.481	1454.15	12634.1	10095.2	13907.4	18109.9	15697	10185.5	10185.5	9104.02	8977.66	13156.2	649.962	1268.71	649.962	649.962	649.962	618.749	1083.27	1270.23	868.135	433.308	433.308	434.827	1083.27	618.749	1299.92	1299.92	434.827	1918.67	1206.29	1516.58	1273.27	866.616	1083.27	433.308	1949.89	1299.92	649.962	1518.1	1422.94	1052.06	866.616	866.616	1052.06	219.692	1083.27	433.308	402.095	0	866.616	433.308	402.095
109.4	646.841	2224.27	3370.47	573.099	215.614	573.099	431.228	3370.47	646.841	3012.98	1466.62	1793.04	2760.3	893.518	850.839	1293.68	1897.84	1509.3	1509.3	1565.81	7191.21	8496.51	9804.03	9937.68	9679.39	13143	11412.5	12778.1	15495.3	14351.4	3807.31	3327.79	2366.14	1934.91	3444.21	462.29	862.455	1251	431.228	646.841	431.228	1078.07	573.099	893.518	1293.68	431.228	431.228	246.676	1818.1	1509.3	462.29	1219.94	215.614	215.614	1078.07	1361.81	862.455	646.841	1023.77	1466.62	1724.91	1219.94	1540.36	862.455	1435.55	788.713	1682.23	788.713	141.872	215.614	677.904
113.4	862.303	6786.23	8614.21	1151.61	1594.78	1021.78	1464.95	7276.68	1724.61	6556.22	1668.51	3682.42	3133.46	3490.88	2185.41	2413	2832.13	3534.96	3706.46	5221.1	6718.11	6428.81	7453.78	5634.62	8079.68	13156.5	14198.3	16495.9	10628.1	16108.9	8177.45	8773.69	6470.47	6169.15	5177.02	2413	2111.68	1408.85	1335.12	818.223	1594.78	1594.78	1754.26	646.727	1420.87	1810.35	1509.03	1509.03	948.051	1119.55	0	936.032	431.152	1379.2	2025.93	578.609	862.303	1077.88	1872.06	2013.91	948.051	1151.61	1550.7	1594.78	2400.98	2229.49	936.032	1237.36	2099.66	2025.93	1594.78
117.6	2789.07	9856.84	8089.26	1732.2	2075.95	1432.32	1776.07	13099.3	2145.44	9650.78	4666.33	6382.68	6410.69	4281.11	5669.56	6839.78	4874.79	5111.26	6474.1	4741.9	4827.23	7616.3	6214.4	5224.62	5240.47	10565	11218.4	11512.2	11768.2	9291.18	10218.8	10578.4	10379.8	10250.5	13812.5	4956.44	5025.93	3104.8	4082.41	5439.16	1631.01	1845.56	3079.18	1517.66	3750.83	3379.06	1517.66	1732.2	4205.54	3192.54	429.087	1072.72	1088.57	1861.41	1416.47	1318.96	905.727	1732.2	1930.89	1088.57	2290.49	2145.44	2381.92	772.838	1791.92	1732.2	2161.29	2338.05	4237.24	2290.49	2060.1
121.9	2077.48	14598.4	13136.2	3134.15	2343.7	2423.07	1632.62	15011.4	3646.57	10725.3	2260.29	5207.59	6419.28	5851.1	6331.83	7221.54	8266.54	6693.27	7440.22	6744.99	7106.43	7241.56	4190.82	4043.89	4603.98	8544.43	6284.15	8135.45	8203.01	8178.95	9120.38	10470.9	11527.6	12520.8	10951.7	7467.87	7686.42	9386.74	6049.76	5060.65	2947.3	2788.56	2689.29	4071.54	3134.15	3050.74	3145.96	3360.46	2359.55	3563.16	429.008	2935.49	1485.68	1779.56	1501.53	2621.73	2741.01	2061.63	1648.47	1271.18	2772.71	2574.05	2081.65	2077.48	3118.3	3134.15	2276.13	2657.6	3185.87	3145.96	2224.42
126.3	2525.26	8242.87	11185.3	1568.8	1072.32	2543.51	1568.8	14144.8	4074.82	9933.89	3168.65	4922.85	6318.06	3604.02	5944.88	6637.57	7065.51	4890.81	6091.79	7875.05	6539.96	3996.45	6979.7	3216.96	2426.66	5019.47	3879.59	5974.93	5907.38	5534.2	9640.07	8586.99	8108.76	8138.82	9493.15	10204.1	8549.49	8041.21	8586	8782.21	3684.37	4074.82	1452.94	3616.82	3383.11	1636.35	2414.85	1771.46	4074.82	2690.42	0	710.945	1814.31	992.961	1715.71	1421.89	1550.55	1452.94	1354.34	3150.4	1121.62	907.157	1550.55	1783.26	1139.87	1568.8	2475.96	2904.89	2672.17	2035.22	2329.05
131.0	1554.02	7026.67	6828.62	1072.11	1009.34	379.555	1286.54	9379.38	2144.23	8266.81	1339.6	2706.17	2474.49	2612.65	1982.87	4381.1	3734.06	4239.17	2411.72	5261.99	3902.96	2425.2	3621.99	1286.54	1438.18	2474.49	3054.99	4542.46	2675.43	3470.35	6865.31	4988.56	8254.2	4318.32	6588.11	7937.42	9200.76	9566.83	8075.58	7660.22	3625.76	2876.37	6726.27	4948.99	5502.51	1072.11	3001.92	643.269	643.269	1880.52	214.423	428.846	544.686	1072.11	1223.76	643.269	1022.82	1402.38	1009.34	1719.16	1388.89	960.047	1666.09	857.692	2081.45	1589.83	1603.32	1603.32	1402.38	960.047	1022.82
135.8	920.29	3858.86	4865.51	428.762	920.29	428.762	667.985	4929.52	857.525	4474.67	491.527	1286.29	2358.19	1197.44	2017.04	3239.32	2079.8	1715.05	2849.72	2143.81	3618.39	1929.43	1928.19	1286.29	1613.12	2143.81	1588.28	579.134	2420.96	2912.49	3946.47	2912.49	4438	3038.02	2937.33	7805.33	6996.24	7223.71	4979.21	5534.74	5091.65	4512.52	6492.96	5194.83	4525.6	1929.43	2572.57	2358.19	1979.11	2622.26	667.985	857.525	1096.75	1286.29	920.29	428.762	643.144	428.762	62.7647	516.369	705.908	277.146	214.381	643.144	301.988	2054.96	705.908	920.29	1286.29	491.527	692.827
140.7	430.662	1507.32	2534.07	215.331	313.241	430.662	1051.7	2559.02	1291.99	1482.37	743.903	411.151	861.325	1291.99	1913.03	1888.08	1678.19	1291.99	1076.66	1076.66	1291.99	959.235	1482.37	1057.14	1672.75	645.993	836.373	503.62	528.572	645.993	2128.36	645.993	1795.61	215.331	934.283	3087.59	3756.64	3375.88	3781.59	3160.55	5787.09	5929.46	4360.07	5313.86	4021.88	2897.21	2251.22	2995.12	3258.46	4256.72	3420.35	1605.23	1462.85	959.235	861.325	215.331	645.993	215.331	215.331	190.379	215.331	959.235	215.331	645.993	836.373	645.993	1076.66	215.331	1291.99	215.331	811.421
145.9	156.295	865.157	1886.61	432.578	334.233	432.578	588.874	1670.32	432.578	1454.03	550.522	981.056	648.868	372.585	648.868	216.289	1257.34	865.157	648.868	1826.62	865.157	1199.39	1297.74	1257.34	1237.74	588.874	865.157	983.1	550.522	648.868	1454.03	1081.45	1848.26	1454.03	1199.39	2220.84	1749.91	3420.23	1966.2	1966.2	4323.74	2968.05	4715.92	3636.52	3263.94	3518.58	3794.86	4165.4	5737.37	4422.09	3124.35	2220.84	3912.8	2653.42	2042.9	1237.74	1394.04	865.157	865.157	216.289	648.868	274.239	216.289	0	588.874	432.578	0	648.868	372.585	216.289	648.868
151.2	59.9815	1513.72	924.962	397.315	0	216.245	59.9815	474.884	432.49	1141.21	432.49	768.698	1297.47	907.374	432.49	1513.72	2006.19	847.393	648.735	1166.01	1279.88	1513.72	1928.62	2835.99	1754.77	1106.03	1081.23	0	864.98	1297.47	474.884	216.245	1081.23	492.472	648.735	1789.94	1496.13	1357.45	1297.47	1297.47	3094.63	2619.75	2505.88	2871.17	3226.09	3683.39	3027.43	4902.16	4547.24	3994.79	4374.52	4530.78	3676.17	2438.68	3112.22	3502.32	3129.81	1478.54	1694.79	648.735	198.658	492.472	864.98	648.735	924.962	216.245	216.245	0	708.717	648.735	648.735
156.8	9.10572	651.632	1538.69	252.543	660.738	0	651.632	1320.93	868.843	2190.32	434.421	1529.58	2172.11	895.615	1737.69	434.421	1086.05	1103.72	868.843	696.07	2841.41	3267.27	2859.62	1990.23	1990.23	1564.91	1095.16	660.738	1104.27	434.421	669.298	651.632	1737.69	1086.05	868.843	1095.16	886.509	1303.26	1529.58	1303.26	1790.68	1555.81	1790.68	1303.26	2198.88	2876.74	2398.42	2877.28	2406.98	3067.72	2242.77	2478.19	2633.85	4371.53	2669.18	2406.98	2850.51	1583.12	2424.65	1737.69	678.404	1520.48	226.316	1303.26	868.843	1086.05	226.316	443.527	0	651.632	877.949
162.5	883.568	3510.93	2183.53	436.37	645.408	654.555	0	1805.4	654.555	3056.27	674.53	2847.23	1785.43	1101.75	674.53	1745.48	892.715	2181.85	1110.9	1994.47	1329.08	1538.12	1528.98	714.48	1090.92	2192.68	1736.33	1756.31	1072.63	1765.45	654.555	1110.9	1527.29	654.555	654.555	1081.78	1349.06	1983.64	903.543	694.505	1369.03	872.74	1090.92	2658.17	883.568	912.69	1558.1	874.422	1983.64	2390.89	1785.43	2401.72	3245.33	2412.54	3265.31	2181.85	1319.94	4158.02	1329.08	2201.82	2609.07	2023.59	2172.7	932.665	1090.92	674.53	1299.96	1121.73	476.32	436.37	1319.94
168.5	1075.77	5547	5108.66	1767.99	0	1767.99	1125.13	4396.38	1329.65	3968.89	1967.09	4655.68	4387.16	3720.43	3106.86	3565.26	3764.37	3097.64	3077.57	4124.06	3340.67	2420.07	2668.53	2365.3	1548.82	3062.93	1548.82	1747.92	2878.47	885.895	2220.97	2916.98	1534.17	1329.65	2410.85	3068.35	1070.35	1952.45	2180.84	2400	2394.58	2235.61	2644.66	2414.65	1514.11	2809.05	3276.68	1967.09	3486.62	2001.8	2370.72	2390.78	2863.83	2823.7	2609.95	2425.49	2434.71	3700.37	3282.1	3545.2	3287.52	4571.62	2191.68	2803.63	2001.8	2858.41	2001.8	1976.31	2809.05	2630.01	1309.59
174.7	3974.46	14630.3	15109.1	3495.42	3510.2	1526.39	2831.58	10065.3	3959.68	16266.8	3745.76	9844.04	10957.8	5508.14	9601.2	8538.86	7197.04	7919.36	7669.02	8347.64	6761.7	6584.83	9202.48	3945.12	2632.43	6142.63	3067.57	2403.94	4394.6	5478.79	4601.24	5205.74	3753.25	3509.98	3745.97	2853.86	2860.92	2639.93	4129.69	6356.34	3494.99	5913.71	1976.09	5007.03	3281.71	4837.45	2831.58	4387.53	3060.5	5478.79	442.416	2625.37	2182.73	1968.81	3075.06	3731.19	5685.22	3738.47	3082.13	4792.89	5080.5	3281.28	4645.37	4151.76	3944.9	3723.69	5456.94	3494.99	4402.31	2639.93	3937.83
181.1	4488.83	25593	25723.3	4427.37	4288.56	4266.61	3653.54	17842.1	8488.76	26030.7	4925.95	14684.7	15419.6	9109.15	9397.21	9260.78	9534.76	9023.93	11367.9	12086.3	9735.03	11790.4	11529.2	6244.07	4979.54	5138.48	5477.56	4764.63	6037.04	4864.49	5653.51	5968.27	3470.27	6005.4	6588.65	5216.39	7018.46	5209.07	5775.31	6918.04	7055.59	5746.05	7546.3	5184.75	5629.19	4510.78	5653.51	6058.99	6518.06	6679.38	222.219	6251.39	4190.52	3516.55	3262.69	3922.03	6818.19	2581.4	5907.36	5079.39	5025.81	4618.51	4213.02	5055.07	2896.16	6136.9	5238.33	6129.58	6910.73	5292.48	5760.68
187.7	6813.27	27298.3	26699.5	6018.36	7486.22	6607.11	3280.56	13915.7	4139.62	28055.1	7710.54	16102.5	19093.2	13055.9	12849.8	11027.4	10110.8	12822	14110.8	11260.2	11923.5	14213.9	12999.6	6626.44	6887.8	4944.2	6083.23	5093.26	5055.06	6018.36	5784.38	6036.52	5840.75	7448.01	6168.14	6457.33	5149.63	6233.01	7243.02	5074.38	5785.1	6121.44	7205.53	6485.88	5176.29	5934.16	7354.6	6382.8	8504.73	5859.63	345.557	1933.94	3084.07	4654.29	3924.97	3027.7	2803.38	4597.92	3906.81	6103.27	4579.76	4663.51	3634.62	6271.22	5989.81	7289.73	3316.89	5167.8	5971.65	4233.04	4672.45
194.6	4159.99	23600.2	24162.1	4415.07	3853.17	3609.57	4104.4	13307.6	6894	19695.3	5109.38	13555	11146.1	7640.13	12579.7	9306.71	9350.91	12783	12132.9	9905.18	9912.8	10888.1	9273.22	5833.42	4536.87	5504.51	5796.93	4810.19	5490.11	4913.75	3214.44	5120.86	4880.25	6465.38	5984.94	4743.98	6380.07	7721.59	4954.09	5460.39	4255.92	3136.76	5630.16	6661.01	3373.59	6443.28	4341.23	4463.03	5807.55	3506.01	328.913	3513.64	2630.45	2855.81	3136.76	3731.37	2508.65	4503.37	3202.97	3428.33	4732.5	3225.07	3665.16	5061.42	3687.25	4359.48	4307.74	4913.75	5767.21	4511	4060.28
201.7	4235.75	12082.6	15645.5	2410.73	3039.96	3364.38	2822.22	7871.14	6830.46	13225.1	2822.22	10369	8810.18	4676.17	5131.21	6380.31	6176.83	7280.6	8960.46	7996.97	8321.34	6549.62	6772.25	2362.3	1771.71	4681.01	2633.35	3543.42	3398.15	4366.42	2633.35	2633.35	4259.79	4356.64	3039.96	4685.9	2764.02	4506.86	3170.63	2991.54	3727.4	3780.72	4535.73	3950.03	2638.24	3049.74	3543.42	4593.93	4540.62	3223.94	455.034	2681.78	1544.19	1500.66	1960.58	2086.36	3049.74	2715.59	1771.71	2096.13	2047.65	2764.02	2178.32	2870.65	3170.63	3141.76	4216.25	3727.4	3732.29	3451.46	2768.91
209.1	1236.52	6683.28	11065.5	1497.57	2986.36	1510.19	2385.11	5707.82	3621.63	9148.62	2230.69	5490.72	5411.59	3454.58	3300.15	4354.75	3498.54	4342.12	3651.82	3577.67	3419.4	4342.12	4068.44	2416.45	2142.77	918.879	2142.77	1378.32	5053.83	1157.38	2297.2	1683.33	2526.92	2828.08	3291.37	1881.72	2986.36	3696.92	2142.77	2067.48	3256.19	2614.83	2526.92	1988.34	1422.28	3838.72	1837.76	3379.29	1957.01	1572.86	0	1378.32	1148.6	2032.3	777.077	1422.28	547.357	1837.76	994.171	2199.35	1608.04	1837.76	1453.61	1466.24	1608.04	1399.73	2186.73	1652	2230.69	1497.57	2186.73
216.7	1159.83	4224.71	5187.05	155.938	1159.83	2319.66	0	3220.82	1159.83	6605.45	1262.46	3528.81	3662.03	2399.57	2270.24	1106.52	3095.47	1726.39	1699.69	1855.73	3122.07	3118.19	2939.53	1315.77	2011.67	874.556	1315.77	1391.8	874.556	1007.77	1517.15	1083.8	1623.76	1319.65	1315.77	1231.87	231.966	1030.49	1315.77	1749.11	1806.3	2087.7	874.556	1882.33	642.59	1905.05	874.556	1547.74	1779.7	2167.61	463.932	695.899	695.899	954.466	410.624	410.624	463.932	695.899	851.837	695.899	410.624	695.899	1494.43	0	1802.42	1726.39	1315.77	1159.83	1673.08	1726.39	2011.67
224.7	0	2013.61	4748.91	31.8716	1405.55	702.775	468.517	1811.22	937.033	3365.32	554.223	1310.83	2630.68	937.033	756.61	1459.38	702.775	554.223	864.281	734.646	1725.51	1693.64	702.775	468.517	937.033	1022.74	1171.29	0	1225.13	266.13	341.929	734.646	1171.29	1639.81	1405.55	864.281	968.905	1257	298.001	576.187	522.352	734.646	1523.13	756.61	1225.13	2684.51	554.223	766.518	702.775	702.775	266.13	734.646	234.258	756.61	522.352	288.094	468.517	702.775	937.033	234.258	53.8353	702.775	990.868	734.646	756.61	990.868	500.388	468.517	1044.7	1225.13	1171.29
232.9	236.597	1623.99	2065	778.293	946.389	946.389	236.597	1319.99	946.389	1961.28	441.005	1150.8	2365.97	810.483	1756.87	1182.99	1283.68	914.199	810.483	1724.68	1724.68	1283.68	1182.99	946.389	337.289	441.005	709.792	1419.58	709.792	1251.49	473.194	677.602	1756.87	473.194	0	337.289	778.293	677.602	1355.2	709.792	1419.58	677.602	645.412	709.792	709.792	709.792	204.407	1118.61	1419.58	709.792	541.696	677.602	709.792	0	709.792	810.483	473.194	810.483	337.289	473.194	473.194	946.389	473.194	1014.89	337.289	810.483	441.005	473.194	674.578	709.792	946.389
241.4	720.669	2709.29	1441.34	378.211	633.978	0	720.669	275.977	633.978	3654.64	787.51	1201.11	1201.11	618.434	1098.88	633.978	1012.19	1114.42	1098.88	771.966	2453.53	858.657	1201.11	393.755	378.211	633.978	480.446	480.446	480.446	618.434	633.978	1201.11	618.434	720.669	720.669	618.434	1098.88	240.223	874.201	960.891	480.446	720.669	1114.42	480.446	960.891	960.891	1201.11	720.669	720.669	240.223	378.211	480.446	480.446	240.223	0	291.52	240.223	618.434	858.657	960.891	547.287	633.978	393.755	618.434	858.657	445.052	633.978	0	996.645	1114.42	787.51
250.3	431.286	660.532	1456.12	242.686	87.5799	242.686	728.058	1213.43	815.638	815.638	417.846	1213.43	1887.4	431.286	485.372	1058.32	1058.32	1301.01	862.573	1301.01	1246.92	1456.12	485.372	1301.01	485.372	761.552	916.658	188.6	242.686	0	330.266	1213.43	431.286	485.372	485.372	970.744	431.286	485.372	572.952	485.372	970.744	728.058	815.638	0	485.372	242.686	1213.43	485.372	1159.34	970.744	0	728.058	485.372	0	242.686	87.5799	188.6	0	485.372	0	175.16	330.266	330.266	485.372	242.686	1091.82	1058.32	970.744	485.372	572.952	660.532
259.5	54.6464	1226.01	2618.85	490.403	490.403	0	245.202	1471.21	735.605	1961.61	490.403	245.202	299.848	1280.66	696.422	0	490.403	490.403	1090.1	245.202	299.848	1186.83	980.807	490.403	490.403	545.05	54.6464	1035.45	0	245.202	0	1186.83	54.6464	451.22	245.202	1716.41	545.05	735.605	735.605	696.422	245.202	696.422	735.605	245.202	696.422	941.624	245.202	1961.61	545.05	490.403	245.202	696.422	490.403	696.422	735.605	490.403	54.6464	245.202	490.403	1677.23	490.403	980.807	490.403	490.403	490.403	299.848	980.807	0	245.202	451.22	490.403
269.0	747.311	1701.13	1033.43	662.118	747.311	0	249.104	747.311	0	1245.52	249.104	704.715	747.311	1701.13	288.91	249.104	747.311	498.208	249.104	996.415	0	1285.33	747.311	249.104	249.104	498.208	498.208	498.208	0	0	0	538.014	249.104	39.8066	1452.03	747.311	0	747.311	249.104	495.417	249.104	1036.22	498.208	455.611	39.8066	787.118	498.208	249.104	1452.03	249.104	0	538.014	455.611	787.118	249.104	249.104	747.311	704.715	0	288.91	747.311	498.208	0	249.104	249.104	206.507	747.311	747.311	747.311	1285.33	249.104
278.8	0	1301.84	1050.09	589.619	0	0	0	0	251.759	1258.79	503.517	1173.11	503.517	294.809	755.276	503.517	251.759	187.391	251.759	755.276	251.759	1194.43	251.759	251.759	0	251.759	251.759	251.759	878.299	439.15	503.517	755.276	0	251.759	294.809	251.759	755.276	942.667	251.759	546.568	251.759	251.759	439.15	1301.84	626.541	251.759	690.908	251.759	43.0508	251.759	0	503.517	546.568	503.517	503.517	503.517	251.759	546.568	0	503.517	755.276	0	251.759	503.517	503.517	546.568	755.276	0	755.276	942.667	251.759
289.0	1023.51	1279.39	406.099	255.878	0	0	0	255.878	255.878	511.757	0	130.842	1023.51	511.757	511.757	767.635	255.878	833.056	511.757	511.757	150.221	1088.93	511.757	255.878	0	511.757	511.757	255.878	642.599	65.4211	406.099	0	0	511.757	511.757	255.878	406.099	833.056	255.878	661.978	0	406.099	65.4211	511.757	130.842	767.635	577.178	406.099	0	511.757	0	0	0	150.221	511.757	511.757	0	0	255.878	406.099	511.757	255.878	255.878	511.757	0	255.878	0	0	0	321.3	255.878
299.6	0	260.138	720.886	260.138	0	260.138	260.138	260.138	780.414	260.138	780.414	0	520.276	0	520.276	520.276	260.138	520.276	93.1942	613.47	107.416	780.414	780.414	780.414	0	93.1942	0	260.138	260.138	1040.55	107.416	520.276	260.138	0	260.138	0	107.416	260.138	260.138	887.83	0	107.416	613.47	780.414	0	0	1300.69	367.554	780.414	520.276	0	260.138	0	107.416	0	520.276	520.276	0	260.138	367.554	260.138	260.138	0	353.332	520.276	520.276	520.276	520.276	260.138	520.276	260.138
310.6	0	789.123	694.889	0	0	263.041	0	0	0	526.082	0	541.581	526.082	526.082	263.041	526.082	263.041	0	694.889	431.848	263.041	1841.29	541.581	526.082	0	168.807	526.082	0	263.041	263.041	0	263.041	526.082	0	789.123	263.041	263.041	0	0	263.041	789.123	15.4993	694.889	526.082	263.041	263.041	0	541.581	526.082	278.54	0	263.041	0	0	0	0	526.082	0	263.041	0	263.041	0	0	168.807	263.041	0	263.041	0	526.082	263.041	0
322.0	267.549	267.549	535.099	267.549	0	0	0	0	0	535.099	0	251.784	0	0	0	535.099	802.648	267.549	452.232	267.549	802.648	0	251.784	0	0	0	0	802.648	0	0	267.549	0	267.549	0	535.099	535.099	0	0	0	0	267.549	251.784	0	267.549	535.099	267.549	0	251.784	0	786.883	0	0	267.549	535.099	0	267.549	0	267.549	0	0	802.648	267.549	0	1070.2	0	0	0	0	267.549	267.549	0
333.8	544.436	272.218	816.654	544.436	272.218	0	0	544.436	272.218	272.218	272.218	272.218	272.218	0	544.436	0	0	0	900.966	272.218	272.218	0	0	0	0	0	0	272.218	0	272.218	0	272.218	0	341.239	0	0	0	0	0	272.218	272.218	272.218	272.218	544.436	0	0	272.218	272.218	69.0214	272.218	0	0	272.218	0	272.218	0	0	272.218	0	69.0214	0	544.436	0	0	69.0214	0	0	544.436	272.218	816.654	0
346.0	0	550.812	275.406	0	0	0	0	275.406	0	275.406	0	550.812	0	0	275.406	550.812	275.406	0	275.406	757.389	0	0	275.406	0	0	0	0	275.406	550.812	0	275.406	0	481.983	756.388	0	0	275.406	0	275.406	275.406	206.577	0	275.406	206.577	0	275.406	275.406	1032.79	205.576	0	0	0	0	275.406	550.812	0	0	0	0	480.982	0	0	275.406	275.406	205.576	0	0	275.406	275.406	481.983	0
358.7	0	0	0	0	280.361	280.361	0	0	0	560.722	0	560.722	280.361	280.361	0	280.361	331.176	0	0	350.428	0	560.722	280.361	0	0	0	0	0	280.361	0	0	280.361	70.0675	0	280.361	0	0	331.176	50.8149	280.361	70.0675	280.361	560.722	350.428	611.537	0	0	70.0675	560.722	560.722	0	560.722	0	0	280.361	0	560.722	0	0	280.361	0	0	280.361	0	280.361	0	280.361	0	280.361	70.0675	0
371.8	0	285.501	285.501	0	285.501	0	0	0	0	571.001	0	156.596	285.501	0	0	285.501	519.255	285.501	571.001	0	0	156.596	0	0	0	0	0	0	571.001	0	0	0	0	285.501	0	0	0	233.754	233.754	0	0	0	285.501	0	233.754	0	285.501	0	285.501	0	0	0	0	0	0	571.001	0	0	285.501	571.001	0	0	0	0	0	0	285.501	0	0	0	285.501
385.4	290.835	581.671	581.671	0	0	0	0	0	0	290.835	0	422.149	0	0	290.835	0	581.671	581.671	0	0	0	131.313	0	0	0	290.835	0	290.835	0	0	0	0	0	0	0	0	0	0	0	0	0	0	290.835	0	248.175	0	581.671	0	290.835	0	0	290.835	290.835	290.835	290.835	0	290.835	0	0	0	0	0	290.835	0	0	0	290.835	0	0	290.835	0
399.5	0	0	0	0	0	0	0	0	0	0	294.489	588.978	0	0	0	294.489	0	0	294.489	588.978	294.489	0	0	0	294.489	294.489	0	0	0	0	0	0	0	0	0	294.489	0	0	0	0	588.978	0	0	0	43.1963	0	0	0	294.489	0	0	0	0	0	0	0	0	0	0	0	294.489	0	0	0	0	0	294.489	0	0	0	0
414.2	300.175	0	300.175	0	0	0	0	0	0	0	0	0	300.175	0	300.175	0	0	300.175	0	0	0	0	300.175	84.5987	300.175	0	0	0	300.175	0	0	0	0	0	0	0	0	300.175	0	0	0	0	0	0	0	0	300.175	0	0	0	0	0	0	300.175	0	0	0	0	0	0	300.175	0	0	0	0	0	0	0	0	0	0
429.4	0	125.089	0	0	0	0	0	0	0	0	0	0	0	0	306.088	306.088	0	306.088	0	0	306.088	0	0	219.823	0	0	0	0	0	0	306.088	306.088	0	0	0	0	0	0	0	0	0	0	0	0	0	0	0	0	0	0	0	0	0	0	306.088	0	0	0	0	0	125.089	306.088	0	0	306.088	0	0	0	0	0	0
445.1	0	183.399	310.146	0	0	0	0	0	0	0	0	148.67	0	0	0	310.146	0	0	0	0	0	0	0	0	0	0	310.146	0	0	0	0	620.293	0	0	0	0	0	0	0	310.146	0	148.67	0	0	0	0	0	310.146	0	0	0	0	0	148.67	0	0	0	0	0	0	183.399	0	458.816	310.146	0	0	0	0	310.146	0	0
461.4	0	316.47	632.94	0	0	0	0	0	0	0	0	481.239	0	0	0	0	316.47	0	0	0	0	0	0	0	0	0	0	0	0	0	0	0	0	0	0	0	0	0	0	0	316.47	164.769	0	0	0	473.277	316.47	0	0	0	0	0	0	164.769	316.47	0	0	0	0	0	0	0	164.769	0	0	0	0	0	0	0	0
478.3	0	0	0	0	0	0	0	0	0	0	0	646.12	0	646.12	0	0	0	0	0	0	0	0	0	0	0	0	0	0	0	0	0	0	323.06	0	323.06	0	0	0	0	0	0	0	0	323.06	0	162.988	0	323.06	148.18	0	0	0	0	646.12	0	646.12	0	0	0	0	0	0	0	0	0	0	0	0	0	0	0
495.8	0	327.594	0	0	0	0	0	0	0	0	0	327.594	0	0	327.594	0	0	327.594	0	448.971	0	0	327.594	0	0	0	0	0	0	0	0	0	0	0	0	0	0	0	0	0	0	0	0	0	327.594	0	0	0	177.335	0	0	0	0	0	0	0	0	0	0	0	0	0	0	327.594	0	0	0	0	0	327.594	0
514.0	334.668	0	0	0	0	0	0	0	0	0	0	0	0	0	0	0	0	0	0	210.67	0	0	0	0	0	0	0	0	0	0	0	0	0	0	0	0	0	0	0	0	0	77.8333	0	0	0	0	0	334.668	0	0	0	0	0	0	0	0	0	0	0	0	77.8333	0	0	0	0	0	0	0	0	0	0
532.8	0	339.543	0	0	0	0	0	0	0	0	0	0	0	0	339.543	0	0	0	0	0	0	0	339.543	0	0	0	0	0	0	0	0	339.543	0	0	0	0	0	0	0	0	0	260.576	0	0	0	0	0	0	0	0	0	0	0	0	0	0	0	0	0	0	260.576	0	0	0	0	0	0	0	339.543	0	0
552.3	0	0	0	0	0	0	0	0	0	0	0	0	0	0	0	0	0	0	0	280.324	0	0	0	0	0	0	0	0	0	0	0	0	0	0	0	0	0	0	0	0	0	0	0	0	0	344.564	0	0	0	0	0	344.564	0	0	0	0	0	0	0	0	0	0	0	344.564	0	344.564	344.564	0	0	0	0
572.5	0	0	0	0	0	0	0	352.409	0	0	0	0	0	0	0	0	0	0	0	65.7033	0	0	0	0	0	0	352.409	0	0	0	0	0	0	0	0	0	0	0	0	0	0	0	0	0	0	0	188.721	352.409	0	0	0	0	0	0	0	0	0	0	0	352.409	0	0	0	0	0	0	0	0	0	0	0
593.5	0	0	0	0	0	0	0	0	0	0	0	0	357.828	0	0	0	0	0	0	0	0	0	0	0	0	0	0	0	0	0	0	0	0	0	0	0	0	0	0	0	0	0	0	357.828	0	357.828	166.205	0	0	0	0	0	0	0	0	0	0	0	0	0	0	0	0	0	0	0	0	0	0	0	357.828
615.3	0	0	0	0	0	0	0	0	0	363.419	0	0	0	0	0	0	0	0	0	0	0	0	0	0	0	0	0	0	363.419	0	0	0	308.78	0	0	0	0	0	0	0	0	0	0	0	0	0	0	0	0	0	0	0	0	0	0	0	0	0	0	0	0	0	0	0	363.419	0	0	0	0	0	0
637.8	0	0	0	0	0	0	0	0	0	0	0	0	0	0	0	0	0	0	0	0	372.168	0	372.168	0	0	0	0	0	0	0	0	0	55.9543	165.476	0	372.168	0	0	0	0	0	0	0	0	0	0	0	372.168	0	0	0	372.168	0	0	0	0	0	0	0	0	0	0	0	0	0	0	0	0	0	0	0
661.2	0	0	0	0	0	0	0	0	0	0	0	0	0	0	0	0	0	0	0	0	0	378.226	0	0	0	0	0	0	0	0	0	378.226	0	210.056	0	0	0	0	0	0	0	0	0	0	0	0	0	0	0	0	378.226	0	0	0	0	0	0	0	0	0	0	0	0	0	0	0	0	378.226	0	0	0
Scan Up Time(s)	120	120	120	120	120	120	120	120	120	120	120	120	120	120	120	120	120	120	120	120	120	120	120	120	120	120	120	120	120	120	120	120	120	120	120	120	120	120	120	120	120	120	120	120	120	120	120	120	120	120	120	120	120	120	120	120	120	120	120	120	120	120	120	120	120	120	120	120	120	120	120
Retrace Time(s)	15	15	15	15	15	15	15	15	15	15	15	15	15	15	15	15	15	15	15	15	15	15	15	15	15	15	15	15	15	15	15	15	15	15	15	15	15	15	15	15	15	15	15	15	15	15	15	15	15	15	15	15	15	15	15	15	15	15	15	15	15	15	15	15	15	15	15	15	15	15	15
Down Scan First	FALSE	FALSE	FALSE	FALSE	FALSE	FALSE	FALSE	FALSE	FALSE	FALSE	FALSE	FALSE	FALSE	FALSE	FALSE	FALSE	FALSE	FALSE	FALSE	FALSE	FALSE	FALSE	FALSE	FALSE	FALSE	FALSE	FALSE	FALSE	FALSE	FALSE	FALSE	FALSE	FALSE	FALSE	FALSE	FALSE	FALSE	FALSE	FALSE	FALSE	FALSE	FALSE	FALSE	FALSE	FALSE	FALSE	FALSE	FALSE	FALSE	FALSE	FALSE	FALSE	FALSE	FALSE	FALSE	FALSE	FALSE	FALSE	FALSE	FALSE	FALSE	FALSE	FALSE	FALSE	FALSE	FALSE	FALSE	FALSE	FALSE	FALSE	FALSE
Scans Per Sample	1	1	1	1	1	1	1	1	1	1	1	1	1	1	1	1	1	1	1	1	1	1	1	1	1	1	1	1	1	1	1	1	1	1	1	1	1	1	1	1	1	1	1	1	1	1	1	1	1	1	1	1	1	1	1	1	1	1	1	1	1	1	1	1	1	1	1	1	1	1	1
Impactor Type(cm)	0.071	0.071	0.071	0.071	0.071	0.071	0.071	0.071	0.071	0.071	0.071	0.071	0.071	0.071	0.071	0.071	0.071	0.071	0.071	0.071	0.071	0.071	0.071	0.071	0.071	0.071	0.071	0.071	0.071	0.071	0.071	0.071	0.071	0.071	0.071	0.071	0.071	0.071	0.071	0.071	0.071	0.071	0.071	0.071	0.071	0.071	0.071	0.071	0.071	0.071	0.071	0.071	0.071	0.071	0.071	0.071	0.071	0.071	0.071	0.071	0.071	0.071	0.071	0.071	0.071	0.071	0.071	0.071	0.071	0.071	0.071
Sheath Flow(lpm)	3.1	3.1	3.1	3.1	3.1	3.1	3.1	3.1	3.1	3.1	3.1	3.1	3.1	3.1	3.1	3.1	3.1	3.1	3.1	3.1	3.1	3.1	3.1	3.1	3.1	3.1	3.1	3.1	3.1	3.1	3.1	3.1	3.1	3.1	3.1	3.1	3.1	3.1	3.1	3.1	3.1	3.1	3.1	3.1	3.1	3.1	3.1	3.1	3.1	3.1	3.1	3.1	3.1	3.1	3.1	3.1	3.1	3.1	3.1	3.1	3.1	3.1	3.1	3.1	3.1	3.1	3.1	3.1	3.1	3.1	3.1
Aerosol Flow(lpm)	0.3	0.3	0.3	0.3	0.3	0.3	0.3	0.3	0.3	0.3	0.3	0.3	0.3	0.3	0.3	0.3	0.3	0.3	0.3	0.3	0.3	0.3	0.3	0.3	0.3	0.3	0.3	0.3	0.3	0.3	0.3	0.3	0.3	0.3	0.3	0.3	0.3	0.3	0.3	0.3	0.3	0.3	0.3	0.3	0.3	0.3	0.3	0.3	0.3	0.3	0.3	0.3	0.3	0.3	0.3	0.3	0.3	0.3	0.3	0.3	0.3	0.3	0.3	0.3	0.3	0.3	0.3	0.3	0.3	0.3	0.3
CPC Inlet Flow(lpm)	0.3	0.3	0.3	0.3	0.3	0.3	0.3	0.3	0.3	0.3	0.3	0.3	0.3	0.3	0.3	0.3	0.3	0.3	0.3	0.3	0.3	0.3	0.3	0.3	0.3	0.3	0.3	0.3	0.3	0.3	0.3	0.3	0.3	0.3	0.3	0.3	0.3	0.3	0.3	0.3	0.3	0.3	0.3	0.3	0.3	0.3	0.3	0.3	0.3	0.3	0.3	0.3	0.3	0.3	0.3	0.3	0.3	0.3	0.3	0.3	0.3	0.3	0.3	0.3	0.3	0.3	0.3	0.3	0.3	0.3	0.3
CPC Sample Flow(lpm)	0.05	0.05	0.05	0.05	0.05	0.05	0.05	0.05	0.05	0.05	0.05	0.05	0.05	0.05	0.05	0.05	0.05	0.05	0.05	0.05	0.05	0.05	0.05	0.05	0.05	0.05	0.05	0.05	0.05	0.05	0.05	0.05	0.05	0.05	0.05	0.05	0.05	0.05	0.05	0.05	0.05	0.05	0.05	0.05	0.05	0.05	0.05	0.05	0.05	0.05	0.05	0.05	0.05	0.05	0.05	0.05	0.05	0.05	0.05	0.05	0.05	0.05	0.05	0.05	0.05	0.05	0.05	0.05	0.05	0.05	0.05
Low Voltage	10.6439	10.6439	10.6439	10.6439	10.6439	10.6439	10.6439	10.6439	10.6439	10.6439	10.6439	10.6439	10.6439	10.6439	10.6439	10.6439	10.6439	10.6439	10.6439	10.6439	10.6439	10.6439	10.6439	10.6439	10.6439	10.6439	10.6439	10.6439	10.6439	10.6439	10.6439	10.6439	10.6439	10.6439	10.6439	10.6439	10.6439	10.6439	10.6439	10.6439	10.6439	10.6439	10.6439	10.6439	10.6439	10.6439	10.6439	10.6439	10.6439	10.6439	10.6439	10.6439	10.6439	10.6439	10.6439	10.6439	10.6439	10.6439	10.6439	10.6439	10.6439	10.6439	10.6439	10.6439	10.6439	10.6439	10.6439	10.6439	10.6439	10.6439	10.6439
High Voltage	9838.86	9838.86	9838.86	9838.86	9838.86	9838.86	9838.86	9838.86	9838.86	9838.86	9838.86	9838.86	9838.86	9838.86	9838.86	9838.86	9838.86	9838.86	9838.86	9838.86	9838.86	9838.86	9838.86	9838.86	9838.86	9838.86	9838.86	9838.86	9838.86	9838.86	9838.86	9838.86	9838.86	9838.86	9838.86	9838.86	9838.86	9838.86	9838.86	9838.86	9838.86	9838.86	9838.86	9838.86	9838.86	9838.86	9838.86	9838.86	9838.86	9838.86	9838.86	9838.86	9838.86	9838.86	9838.86	9838.86	9838.86	9838.86	9838.86	9838.86	9838.86	9838.86	9838.86	9838.86	9838.86	9838.86	9838.86	9838.86	9838.86	9838.86	9838.86
Lower Size(nm)	14.3301	14.3301	14.3301	14.3301	14.3301	14.3301	14.3301	14.3301	14.3301	14.3301	14.3301	14.3301	14.3301	14.3301	14.3301	14.3301	14.3301	14.3301	14.3301	14.3301	14.3301	14.3301	14.3301	14.3301	14.3301	14.3301	14.3301	14.3301	14.3301	14.3301	14.3301	14.3301	14.3301	14.3301	14.3301	14.3301	14.3301	14.3301	14.3301	14.3301	14.3301	14.3301	14.3301	14.3301	14.3301	14.3301	14.3301	14.3301	14.3301	14.3301	14.3301	14.3301	14.3301	14.3301	14.3301	14.3301	14.3301	14.3301	14.3301	14.3301	14.3301	14.3301	14.3301	14.3301	14.3301	14.3301	14.3301	14.3301	14.3301	14.3301	14.3301
Upper Size(nm)	673.17	673.17	673.17	673.17	673.17	673.17	673.17	673.17	673.17	673.17	673.17	673.17	673.17	673.17	673.17	673.17	673.17	673.17	673.17	673.17	673.17	673.17	673.17	673.17	673.17	673.17	673.17	673.17	673.17	673.17	673.17	673.17	673.17	673.17	673.17	673.17	673.17	673.17	673.17	673.17	673.17	673.17	673.17	673.17	673.17	673.17	673.17	673.17	673.17	673.17	673.17	673.17	673.17	673.17	673.17	673.17	673.17	673.17	673.17	673.17	673.17	673.17	673.17	673.17	673.17	673.17	673.17	673.17	673.17	673.17	673.17
Density(g/cc)	1	1	1	1	1	1	1	1	1	1	1	1	1	1	1	1	1	1	1	1	1	1	1	1	1	1	1	1	1	1	1	1	1	1	1	1	1	1	1	1	1	1	1	1	1	1	1	1	1	1	1	1	1	1	1	1	1	1	1	1	1	1	1	1	1	1	1	1	1	1	1
Title																																																																							
Status Flag	Normal Scan	Normal Scan	Normal Scan	Normal Scan	Normal Scan	Normal Scan	Normal Scan	Normal Scan	Normal Scan	Normal Scan	Normal Scan	Normal Scan	Normal Scan	Normal Scan	Normal Scan	Normal Scan	Normal Scan	Normal Scan	Normal Scan	Normal Scan	Normal Scan	Normal Scan	Normal Scan	Normal Scan	Normal Scan	Normal Scan	Normal Scan	Normal Scan	Normal Scan	Normal Scan	Normal Scan	Normal Scan	Normal Scan	Normal Scan	Normal Scan	Normal Scan	Normal Scan	Normal Scan	Normal Scan	Normal Scan	Normal Scan	Normal Scan	Normal Scan	Normal Scan	Normal Scan	Normal Scan	Normal Scan	Normal Scan	Normal Scan	Normal Scan	Normal Scan	Normal Scan	Normal Scan	Normal Scan	Normal Scan	Normal Scan	Normal Scan	Normal Scan	Normal Scan	Normal Scan	Normal Scan	Normal Scan	Normal Scan	Normal Scan	Normal Scan	Normal Scan	Normal Scan	Normal Scan	Normal Scan	Normal Scan	Normal Scan
td(s)	4.5	4.5	4.5	4.5	4.5	4.5	4.5	4.5	4.5	4.5	4.5	4.5	4.5	4.5	4.5	4.5	4.5	4.5	4.5	4.5	4.5	4.5	4.5	4.5	4.5	4.5	4.5	4.5	4.5	4.5	4.5	4.5	4.5	4.5	4.5	4.5	4.5	4.5	4.5	4.5	4.5	4.5	4.5	4.5	4.5	4.5	4.5	4.5	4.5	4.5	4.5	4.5	4.5	4.5	4.5	4.5	4.5	4.5	4.5	4.5	4.5	4.5	4.5	4.5	4.5	4.5	4.5	4.5	4.5	4.5	4.5
tf(s)	7.29962	7.29962	7.29962	7.29962	7.29962	7.29962	7.29962	7.29962	7.29962	7.29962	7.29962	7.29962	7.29962	7.29962	7.29962	7.29962	7.29962	7.29962	7.29962	7.29962	7.29962	7.29962	7.29962	7.29962	7.29962	7.29962	7.29962	7.29962	7.29962	7.29962	7.29962	7.29962	7.29962	7.29962	7.29962	7.29962	7.29962	7.29962	7.29962	7.29962	7.29962	7.29962	7.29962	7.29962	7.29962	7.29962	7.29962	7.29962	7.29962	7.29962	7.29962	7.29962	7.29962	7.29962	7.29962	7.29962	7.29962	7.29962	7.29962	7.29962	7.29962	7.29962	7.29962	7.29962	7.29962	7.29962	7.29962	7.29962	7.29962	7.29962	7.29962
D50(nm)	1415.69	1415.69	1415.69	1415.69	1415.69	1415.69	1415.69	1415.69	1415.69	1415.69	1415.69	1415.69	1415.69	1415.69	1415.69	1415.69	1415.69	1415.69	1415.69	1415.69	1415.69	1415.69	1415.69	1415.69	1415.69	1415.69	1415.69	1415.69	1415.69	1415.69	1415.69	1415.69	1415.69	1415.69	1415.69	1415.69	1415.69	1415.69	1415.69	1415.69	1415.69	1415.69	1415.69	1415.69	1415.69	1415.69	1415.69	1415.69	1415.69	1415.69	1415.69	1415.69	1415.69	1415.69	1415.69	1415.69	1415.69	1415.69	1415.69	1415.69	1415.69	1415.69	1415.69	1415.69	1415.69	1415.69	1415.69	1415.69	1415.69	1415.69	1415.69
Median(nm)	26.4514	26.7454	26.9703	27.8115	28.6299	31.2582	32.3228	30.1609	31.5211	28.195	35.6449	29.0122	28.5187	29.324	30.1945	29.6169	29.6355	29.8532	29.2916	29.6574	27.5307	28.5736	28.7047	33.1955	30.9991	30.0161	29.9911	29.2371	29.3725	29.5401	28.5048	29.1773	28.4158	27.9912	28.2066	28.2249	28.4479	28.3982	27.3562	27.874	27.8185	27.7993	27.4263	27.7321	27.7562	27.2772	28.0154	26.997	28.1029	27.7168	41.9154	30.0511	29.1588	30.1115	29.4451	28.0631	29.0145	29.2142	28.2406	28.3867	29.2384	28.4891	27.3116	27.9722	27.7365	27.7452	26.992	27.6805	27.4631	26.7466	26.8887
Mean(nm)	45.2439	42.1179	44.2615	47.6609	52.8901	48.4908	47.5243	43.3457	49.4515	46.5674	52.7689	48.5428	46.5416	46.8458	50.7348	50.515	50.0809	50.2844	49.3582	49.5082	46.6924	47.4397	47.544	60.2375	53.8098	53.192	52.5812	50.9183	53.1178	51.2966	49.3757	51.3144	48.2583	48.732	48.5018	48.0398	47.0574	48.371	44.2646	46.8055	45.5667	44.5108	45.8312	45.7279	43.8367	44.2647	43.8697	44.4197	44.8398	42.3611	81.4781	69.457	59.1269	66.4732	63.1344	57.662	60.124	58.2831	53.3861	57.4523	57.136	53.4406	50.5825	52.1769	49.4349	50.9929	48.6172	46.4221	49.2082	44.0438	43.8845
Geo. Mean(nm)	32.1496	31.2762	32.1639	33.7295	36.1816	36.4825	36.4416	34.9099	36.8051	33.9995	40.7711	35.5859	34.5649	35.4109	37.4339	37.2174	37.0223	37.2982	36.641	36.5509	34.2337	34.8277	35.0421	43.7933	39.8121	38.4711	38.0958	37.0896	38.0144	37.5933	35.951	36.4961	35.0963	35.132	35.0138	34.7457	34.6556	35.2146	33.178	33.8369	33.4045	33.0142	33.4336	33.3234	32.9077	32.5328	32.7357	32.2652	33.159	31.9907	55.7918	44.1738	39.2786	42.5757	41.3641	37.8068	39.5117	39.0238	36.5296	37.7753	38.3295	36.4073	34.6894	35.3439	34.32	35.3535	33.827	33.1542	34.3534	31.955	32.13
Mode(nm)	24.1442	25.9455	25.0287	27.8813	28.9026	44.5079	46.1384	28.9026	46.1384	25.9455	63.7804	25.0287	23.291	23.291	22.4679	25.9455	25.0287	25.9455	24.1442	24.1442	22.4679	27.8813	26.896	98.2172	26.896	24.1442	25.9455	27.8813	25.0287	25.0287	21.6739	20.908	24.1442	22.4679	21.6739	25.0287	26.896	23.291	23.291	22.4679	25.9455	25.9455	24.1442	25.0287	24.1442	25.0287	27.8813	25.0287	23.291	28.9026	151.247	28.9026	29.9614	21.6739	20.908	21.6739	26.896	22.4679	20.908	22.4679	25.9455	25.9455	22.4679	24.1442	28.9026	26.896	20.908	24.1442	25.0287	25.9455	24.1442
Geo. Std. Dev.	1.9987	1.90615	1.96125	2.03434	2.13538	1.94503	1.91685	1.74524	1.97599	1.97264	1.97083	1.9922	1.95797	1.95225	2.01439	2.02973	2.01814	2.01389	2.00167	2.00851	1.99358	1.98525	1.98663	2.14616	2.07181	2.09507	2.08112	2.0633	2.10311	2.05671	2.04101	2.07164	2.01315	2.03329	2.03346	2.01685	1.98715	2.00982	1.92121	2.01074	1.96102	1.92547	1.96821	1.96771	1.90218	1.93034	1.89269	1.94527	1.93066	1.88313	2.40847	2.43043	2.29328	2.40059	2.33116	2.27397	2.30857	2.25542	2.16514	2.24976	2.20306	2.15825	2.1198	2.13248	2.0817	2.10494	2.05841	2.00189	2.06428	1.93585	1.93187
Total Concentration(#/cm)	6256.22	32324.4	30707.6	4838.27	4197.45	5511.56	5436.99	28236.6	8233.06	27623.4	9098.41	18322.9	20235.9	14996.9	14047.4	14974.7	15188.5	16190	16986.4	17269.7	17127	17758.4	17512.8	7698.1	8805.21	8822.8	8679.42	9090.87	9389.6	9365.91	8571	9066.72	9879.51	9520.33	9958.68	9706.83	9680.19	10345.1	10806.6	9900.23	10057.1	10299.1	10539.1	10707.1	10075.8	10960.6	10831.2	11200.2	11806.2	11773.5	1122.93	2963.58	3369.02	3092.51	3294.47	3602.85	3416.35	3615	3945.75	4220.01	4278.27	4392.2	4537.54	5053.17	5380.12	5445.76	6049.54	6157.25	6817.86	7726.7	7124.72
Comment																																																																							
